Wavenumbers	Absorbance	
4000.000	0.04564087	
3999.500	0.0460758	
3999.000	0.04650237	
3998.500	0.04694505	
3998.000	0.04741118	
3997.500	0.04789949	
3997.000	0.04841391	
3996.500	0.04895587	
3996.000	0.04951207	
3995.500	0.05007397	
3995.000	0.05064967	
3994.500	0.05124201	
3994.000	0.05187384	
3993.500	0.05253999	
3993.000	0.05322977	
3992.500	0.05394054	
3992.000	0.05467445	
3991.500	0.05543522	
3991.000	0.05621552	
3990.500	0.05699888	
3990.000	0.05777738	
3989.500	0.05856155	
3989.000	0.05937016	
3988.500	0.06021494	
3988.000	0.06108909	
3987.500	0.06198207	
3987.000	0.06289271	
3986.500	0.0638303	
3986.000	0.0648069	
3985.500	0.06583366	
3985.000	0.0669069	
3984.500	0.06801838	
3984.000	0.06915115	
3983.500	0.07029964	
3983.000	0.07146972	
3982.500	0.07267665	
3982.000	0.07392034	
3981.500	0.07518907	
3981.000	0.07646504	
3980.500	0.07773716	
3980.000	0.07900877	
3979.500	0.08030128	
3979.000	0.08163632	
3978.500	0.08302201	
3978.000	0.08444773	
3977.500	0.08590509	
3977.000	0.08739957	
3976.500	0.08895897	
3976.000	0.09060351	
3975.500	0.09233282	
3975.000	0.09412945	
3974.500	0.09598306	
3974.000	0.09789582	
3973.500	0.09988642	
3973.000	0.1019709	
3972.500	0.1041573	
3972.000	0.1064408	
3971.500	0.1088102	
3971.000	0.1112749	
3970.500	0.1138408	
3970.000	0.1165079	
3969.500	0.1192832	
3969.000	0.122184	
3968.500	0.1252445	
3968.000	0.1284735	
3967.500	0.1318785	
3967.000	0.1354583	
3966.500	0.1392481	
3966.000	0.1433028	
3965.500	0.1476482	
3965.000	0.1523037	
3964.500	0.157295	
3964.000	0.162621	
3963.500	0.168336	
3963.000	0.174458	
3962.500	0.1810373	
3962.000	0.1880767	
3961.500	0.1956154	
3961.000	0.203674	
3960.500	0.212249	
3960.000	0.2214102	
3959.500	0.2311787	
3959.000	0.2417348	
3958.500	0.2531179	
3958.000	0.2653961	
3957.500	0.2787149	
3957.000	0.2931364	
3956.500	0.3088085	
3956.000	0.3258506	
3955.500	0.3442317	
3955.000	0.3641701	
3954.500	0.3857857	
3954.000	0.4092893	
3953.500	0.4346881	
3953.000	0.4620829	
3952.500	0.4914431	
3952.000	0.5226622	
3951.500	0.555669	
3951.000	0.590165	
3950.500	0.6258199	
3950.000	0.6621275	
3949.500	0.6985866	
3949.000	0.7344987	
3948.500	0.7691364	
3948.000	0.8013911	
3947.500	0.8303835	
3947.000	0.8551534	
3946.500	0.875052	
3946.000	0.8892139	
3945.500	0.8972235	
3945.000	0.8988508	
3944.500	0.8940797	
3944.000	0.8832109	
3943.500	0.8666222	
3943.000	0.8446164	
3942.500	0.8181723	
3942.000	0.7879448	
3941.500	0.7549597	
3941.000	0.7200582	
3940.500	0.6841354	
3940.000	0.6479306	
3939.500	0.6121684	
3939.000	0.5774075	
3938.500	0.5439679	
3938.000	0.5120213	
3937.500	0.4816914	
3937.000	0.4530816	
3936.500	0.4261953	
3936.000	0.4010785	
3935.500	0.3776547	
3935.000	0.355757	
3934.500	0.3353434	
3934.000	0.3162708	
3933.500	0.2984774	
3933.000	0.2818373	
3932.500	0.2662954	
3932.000	0.2517636	
3931.500	0.2382998	
3931.000	0.2258439	
3930.500	0.2143145	
3930.000	0.2035852	
3929.500	0.1936375	
3929.000	0.1845043	
3928.500	0.1761129	
3928.000	0.1683447	
3927.500	0.1611298	
3927.000	0.1544375	
3926.500	0.1483285	
3926.000	0.1427277	
3925.500	0.1374724	
3925.000	0.1324062	
3924.500	0.1275563	
3924.000	0.123022	
3923.500	0.1188856	
3923.000	0.1150779	
3922.500	0.1114941	
3922.000	0.1080928	
3921.500	0.1048701	
3921.000	0.1018302	
3920.500	0.09892898	
3920.000	0.09613351	
3919.500	0.09343871	
3919.000	0.09083702	
3918.500	0.08831408	
3918.000	0.08584142	
3917.500	0.08342344	
3917.000	0.08108472	
3916.500	0.07881333	
3916.000	0.07655374	
3915.500	0.07427375	
3915.000	0.07203813	
3914.500	0.06996279	
3914.000	0.06810301	
3913.500	0.06640077	
3913.000	0.06477169	
3912.500	0.06321849	
3912.000	0.06177208	
3911.500	0.06045831	
3911.000	0.05933761	
3910.500	0.0584738	
3910.000	0.05779032	
3909.500	0.05711637	
3909.000	0.0564247	
3908.500	0.05591867	
3908.000	0.05580282	
3907.500	0.0559493	
3907.000	0.05606351	
3906.500	0.05606035	
3906.000	0.05614894	
3905.500	0.05651663	
3905.000	0.05702049	
3904.500	0.05735638	
3904.000	0.05738937	
3903.500	0.05721357	
3903.000	0.0569334	
3902.500	0.05652602	
3902.000	0.05588955	
3901.500	0.05501864	
3901.000	0.05400403	
3900.500	0.05289673	
3900.000	0.05162342	
3899.500	0.0501673	
3899.000	0.04868703	
3898.500	0.0474325	
3898.000	0.04651949	
3897.500	0.04579318	
3897.000	0.04510063	
3896.500	0.04453059	
3896.000	0.04432514	
3895.500	0.0444877	
3895.000	0.04481357	
3894.500	0.04515943	
3894.000	0.04552379	
3893.500	0.04587513	
3893.000	0.04617157	
3892.500	0.04649785	
3892.000	0.04694347	
3891.500	0.04738719	
3891.000	0.04766306	
3890.500	0.0478269	
3890.000	0.04808455	
3889.500	0.04857438	
3889.000	0.04927356	
3888.500	0.05006999	
3888.000	0.05087772	
3887.500	0.05163249	
3887.000	0.05235159	
3886.500	0.0531219	
3886.000	0.05394964	
3885.500	0.05474895	
3885.000	0.05546588	
3884.500	0.05609699	
3884.000	0.05664394	
3883.500	0.05713686	
3883.000	0.05764501	
3882.500	0.05819441	
3882.000	0.05863273	
3881.500	0.05878377	
3881.000	0.05880521	
3880.500	0.05904055	
3880.000	0.05953013	
3879.500	0.05997492	
3879.000	0.06006139	
3878.500	0.05972866	
3878.000	0.05912482	
3877.500	0.05842911	
3877.000	0.05774787	
3876.500	0.05708048	
3876.000	0.05634508	
3875.500	0.05547683	
3875.000	0.05457888	
3874.500	0.0538539	
3874.000	0.05339759	
3873.500	0.05310999	
3873.000	0.05277495	
3872.500	0.05223296	
3872.000	0.05153845	
3871.500	0.05090784	
3871.000	0.05042591	
3870.500	0.04989894	
3870.000	0.0490723	
3869.500	0.04792574	
3869.000	0.04671259	
3868.500	0.04567137	
3868.000	0.0448135	
3867.500	0.04397905	
3867.000	0.04306892	
3866.500	0.04212454	
3866.000	0.04115511	
3865.500	0.04013688	
3865.000	0.03915937	
3864.500	0.03834206	
3864.000	0.0376933	
3863.500	0.03711783	
3863.000	0.03649598	
3862.500	0.03573696	
3862.000	0.03475704	
3861.500	0.03350088	
3861.000	0.03224767	
3860.500	0.03162801	
3860.000	0.03161885	
3859.500	0.03180654	
3859.000	0.03238793	
3858.500	0.03388985	
3858.000	0.03638651	
3857.500	0.03942353	
3857.000	0.04249875	
3856.500	0.04548636	
3856.000	0.04841794	
3855.500	0.05116688	
3855.000	0.05340919	
3854.500	0.05486203	
3854.000	0.05546742	
3853.500	0.05525056	
3853.000	0.05419437	
3852.500	0.05222247	
3852.000	0.04945196	
3851.500	0.04621092	
3851.000	0.04310241	
3850.500	0.04039651	
3850.000	0.03771178	
3849.500	0.03503499	
3849.000	0.03299419	
3848.500	0.03193419	
3848.000	0.03160774	
3847.500	0.03172546	
3847.000	0.0322167	
3846.500	0.03313604	
3846.000	0.03429944	
3845.500	0.03539732	
3845.000	0.0362459	
3844.500	0.03706553	
3844.000	0.03813645	
3843.500	0.03936524	
3843.000	0.04057463	
3842.500	0.04182175	
3842.000	0.04330488	
3841.500	0.04519768	
3841.000	0.04742593	
3840.500	0.04967014	
3840.000	0.05159651	
3839.500	0.05302354	
3839.000	0.05404125	
3838.500	0.0549338	
3838.000	0.0559634	
3837.500	0.05706994	
3837.000	0.05796339	
3836.500	0.0584258	
3836.000	0.05851292	
3835.500	0.05845388	
3835.000	0.05851623	
3834.500	0.05882239	
3834.000	0.05925277	
3833.500	0.0596722	
3833.000	0.060251	
3832.500	0.0612427	
3832.000	0.06265076	
3831.500	0.06425261	
3831.000	0.06571744	
3830.500	0.06685324	
3830.000	0.0677216	
3829.500	0.06843975	
3829.000	0.06905194	
3828.500	0.06960888	
3828.000	0.07019673	
3827.500	0.07078609	
3827.000	0.07126521	
3826.500	0.07162178	
3826.000	0.07197245	
3825.500	0.07238994	
3825.000	0.07282564	
3824.500	0.07316165	
3824.000	0.07325157	
3823.500	0.07300041	
3823.000	0.07243412	
3822.500	0.07172651	
3822.000	0.07087462	
3821.500	0.06973765	
3821.000	0.06843096	
3820.500	0.06721665	
3820.000	0.0661937	
3819.500	0.06526978	
3819.000	0.06432271	
3818.500	0.06335473	
3818.000	0.06244285	
3817.500	0.06152394	
3817.000	0.06042533	
3816.500	0.05913151	
3816.000	0.05781064	
3815.500	0.05654852	
3815.000	0.05525485	
3814.500	0.05375493	
3814.000	0.05205352	
3813.500	0.05047168	
3813.000	0.04929739	
3812.500	0.04848697	
3812.000	0.04782466	
3811.500	0.04743185	
3811.000	0.04768768	
3810.500	0.0487219	
3810.000	0.05023744	
3809.500	0.05178588	
3809.000	0.05301066	
3808.500	0.05388198	
3808.000	0.05463874	
3807.500	0.05542359	
3807.000	0.05611621	
3806.500	0.05668182	
3806.000	0.05729607	
3805.500	0.05810164	
3805.000	0.05907105	
3804.500	0.0600684	
3804.000	0.06099773	
3803.500	0.06181293	
3803.000	0.06240779	
3802.500	0.06270353	
3802.000	0.06282776	
3801.500	0.06289294	
3801.000	0.0628854	
3800.500	0.06273191	
3800.000	0.06235549	
3799.500	0.06171491	
3799.000	0.06084255	
3798.500	0.05989007	
3798.000	0.05901335	
3797.500	0.0581885	
3797.000	0.05737494	
3796.500	0.05676106	
3796.000	0.05654068	
3795.500	0.05667274	
3795.000	0.05693486	
3794.500	0.05712293	
3794.000	0.05718351	
3793.500	0.05723143	
3793.000	0.05736536	
3792.500	0.05755657	
3792.000	0.0577478	
3791.500	0.05800626	
3791.000	0.05845061	
3790.500	0.05910528	
3790.000	0.05987244	
3789.500	0.06062414	
3789.000	0.06130958	
3788.500	0.06196631	
3788.000	0.06262629	
3787.500	0.06326871	
3787.000	0.06388322	
3786.500	0.06454888	
3786.000	0.06539203	
3785.500	0.06642448	
3785.000	0.06751768	
3784.500	0.06857202	
3784.000	0.06962779	
3783.500	0.07079876	
3783.000	0.07212998	
3782.500	0.07357898	
3782.000	0.07508783	
3781.500	0.07662512	
3781.000	0.07816537	
3780.500	0.07966694	
3780.000	0.08110995	
3779.500	0.08252342	
3779.000	0.08396457	
3778.500	0.08548216	
3778.000	0.08706119	
3777.500	0.08868155	
3777.000	0.09045118	
3776.500	0.09262727	
3776.000	0.09528667	
3775.500	0.09822385	
3775.000	0.101233	
3774.500	0.1044389	
3774.000	0.1080796	
3773.500	0.1122621	
3773.000	0.1168757	
3772.500	0.1217934	
3772.000	0.1269906	
3771.500	0.1324178	
3771.000	0.1380197	
3770.500	0.1437779	
3770.000	0.1498121	
3769.500	0.1562399	
3769.000	0.1631171	
3768.500	0.1704208	
3768.000	0.1780862	
3767.500	0.186096	
3767.000	0.1945544	
3766.500	0.2035682	
3766.000	0.213152	
3765.500	0.2231065	
3765.000	0.2333225	
3764.500	0.2438246	
3764.000	0.2546208	
3763.500	0.2656278	
3763.000	0.2766834	
3762.500	0.2875299	
3762.000	0.2978062	
3761.500	0.3071274	
3761.000	0.3153505	
3760.500	0.3223593	
3760.000	0.3280944	
3759.500	0.3323813	
3759.000	0.3352121	
3758.500	0.3367677	
3758.000	0.3370133	
3757.500	0.3357824	
3757.000	0.3330689	
3756.500	0.3291673	
3756.000	0.3245352	
3755.500	0.3194205	
3755.000	0.3135592	
3754.500	0.306901	
3754.000	0.2997857	
3753.500	0.2925618	
3753.000	0.2851931	
3752.500	0.277322	
3752.000	0.2686022	
3751.500	0.2592992	
3751.000	0.250254	
3750.500	0.2416058	
3750.000	0.2329016	
3749.500	0.2244315	
3749.000	0.2169211	
3748.500	0.2106338	
3748.000	0.2052158	
3747.500	0.2002842	
3747.000	0.1957317	
3746.500	0.1915432	
3746.000	0.1878003	
3745.500	0.184305	
3745.000	0.1807743	
3744.500	0.1773541	
3744.000	0.1742358	
3743.500	0.171366	
3743.000	0.1685377	
3742.500	0.1656599	
3742.000	0.1629628	
3741.500	0.1610809	
3741.000	0.1604541	
3740.500	0.1605643	
3740.000	0.1610519	
3739.500	0.1622801	
3739.000	0.1645822	
3738.500	0.1678093	
3738.000	0.1715141	
3737.500	0.1751606	
3737.000	0.1784009	
3736.500	0.1813001	
3736.000	0.1841303	
3735.500	0.1869341	
3735.000	0.1895128	
3734.500	0.191617	
3734.000	0.1931273	
3733.500	0.1941881	
3733.000	0.1950121	
3732.500	0.1956038	
3732.000	0.1959049	
3731.500	0.1960046	
3731.000	0.195969	
3730.500	0.1956808	
3730.000	0.1950327	
3729.500	0.1941052	
3729.000	0.1932411	
3728.500	0.1925638	
3728.000	0.1918353	
3727.500	0.1908937	
3727.000	0.1897928	
3726.500	0.1888048	
3726.000	0.1879721	
3725.500	0.1868445	
3725.000	0.185064	
3724.500	0.1827029	
3724.000	0.1799009	
3723.500	0.1768822	
3723.000	0.1739341	
3722.500	0.1710221	
3722.000	0.168023	
3721.500	0.1651301	
3721.000	0.1625094	
3720.500	0.1599787	
3720.000	0.1573867	
3719.500	0.1549156	
3719.000	0.1528277	
3718.500	0.1511862	
3718.000	0.1500456	
3717.500	0.1493254	
3717.000	0.1488367	
3716.500	0.1487612	
3716.000	0.1494199	
3715.500	0.1505407	
3715.000	0.1516716	
3714.500	0.1528489	
3714.000	0.1542751	
3713.500	0.1560117	
3713.000	0.158155	
3712.500	0.1606678	
3712.000	0.1633609	
3711.500	0.1661064	
3711.000	0.1688596	
3710.500	0.1715651	
3710.000	0.1743173	
3709.500	0.177239	
3709.000	0.1804516	
3708.500	0.1841956	
3708.000	0.1886284	
3707.500	0.1934553	
3707.000	0.1985964	
3706.500	0.2045766	
3706.000	0.2115873	
3705.500	0.2191227	
3705.000	0.2267477	
3704.500	0.2350638	
3704.000	0.2435944	
3703.500	0.2521594	
3703.000	0.2616776	
3702.500	0.2719854	
3702.000	0.282517	
3701.500	0.292843	
3701.000	0.303405	
3700.500	0.3145616	
3700.000	0.3258288	
3699.500	0.3368331	
3699.000	0.3480365	
3698.500	0.359698	
3698.000	0.3712353	
3697.500	0.3822481	
3697.000	0.3931433	
3696.500	0.4039975	
3696.000	0.413887	
3695.500	0.4223766	
3695.000	0.4301397	
3694.500	0.4374747	
3694.000	0.4431235	
3693.500	0.4471843	
3693.000	0.4505544	
3692.500	0.4524612	
3692.000	0.4522186	
3691.500	0.4496442	
3691.000	0.4454409	
3690.500	0.439539	
3690.000	0.4313338	
3689.500	0.4209922	
3689.000	0.4095113	
3688.500	0.3971228	
3688.000	0.3834885	
3687.500	0.3689267	
3687.000	0.3541702	
3686.500	0.3391747	
3686.000	0.3237023	
3685.500	0.3084024	
3685.000	0.2941771	
3684.500	0.280818	
3684.000	0.2676311	
3683.500	0.25487	
3683.000	0.2431392	
3682.500	0.232392	
3682.000	0.2223167	
3681.500	0.212985	
3681.000	0.204517	
3680.500	0.1967529	
3680.000	0.1894899	
3679.500	0.1828524	
3679.000	0.176931	
3678.500	0.171354	
3678.000	0.1656525	
3677.500	0.1599323	
3677.000	0.1544985	
3676.500	0.1492111	
3676.000	0.1437369	
3675.500	0.1382061	
3675.000	0.1329866	
3674.500	0.1280797	
3674.000	0.1231529	
3673.500	0.1181113	
3673.000	0.113218	
3672.500	0.1087107	
3672.000	0.1045112	
3671.500	0.1004147	
3671.000	0.09640908	
3670.500	0.09260089	
3670.000	0.08890432	
3669.500	0.08516008	
3669.000	0.08131238	
3668.500	0.07735271	
3668.000	0.07329607	
3667.500	0.06928302	
3667.000	0.06545828	
3666.500	0.06186925	
3666.000	0.05855421	
3665.500	0.05567519	
3665.000	0.05331216	
3664.500	0.05133801	
3664.000	0.04946188	
3663.500	0.04758276	
3663.000	0.04586901	
3662.500	0.04451661	
3662.000	0.04341996	
3661.500	0.04234656	
3661.000	0.04127764	
3660.500	0.04038273	
3660.000	0.0397707	
3659.500	0.03936289	
3659.000	0.03892907	
3658.500	0.03831622	
3658.000	0.03759936	
3657.500	0.03694773	
3657.000	0.03636381	
3656.500	0.03570148	
3656.000	0.03489882	
3655.500	0.03406211	
3655.000	0.03329533	
3654.500	0.03263937	
3654.000	0.03221445	
3653.500	0.03224149	
3653.000	0.03279655	
3652.500	0.03356046	
3652.000	0.03412396	
3651.500	0.03442239	
3651.000	0.03464242	
3650.500	0.03483799	
3650.000	0.0348161	
3649.500	0.03433656	
3649.000	0.03332244	
3648.500	0.03184094	
3648.000	0.03008619	
3647.500	0.02811732	
3647.000	0.02588392	
3646.500	0.02338922	
3646.000	0.02081256	
3645.500	0.01837018	
3645.000	0.01618131	
3644.500	0.01433774	
3644.000	0.01293292	
3643.500	0.01191784	
3643.000	0.01106256	
3642.500	0.01017352	
3642.000	0.009261511	
3641.500	0.008454747	
3641.000	0.007804356	
3640.500	0.00726971	
3640.000	0.00679661	
3639.500	0.00635047	
3639.000	0.005846176	
3638.500	0.005294052	
3638.000	0.004740941	
3637.500	0.004177767	
3637.000	0.003609408	
3636.500	0.003024209	
3636.000	0.002503018	
3635.500	0.00223133	
3635.000	0.002193193	
3634.500	0.002265671	
3634.000	0.002501799	
3633.500	0.003009322	
3633.000	0.003843317	
3632.500	0.005021419	
3632.000	0.006388452	
3631.500	0.007715021	
3631.000	0.008837337	
3630.500	0.009642347	
3630.000	0.01009843	
3629.500	0.01018303	
3629.000	0.009861497	
3628.500	0.009223553	
3628.000	0.008320288	
3627.500	0.007134638	
3627.000	0.005730663	
3626.500	0.004252783	
3626.000	0.002965471	
3625.500	0.002016237	
3625.000	0.001267248	
3624.500	0.000779463	
3624.000	0.0009135396	
3623.500	0.001645125	
3623.000	0.002654309	
3622.500	0.003692252	
3622.000	0.004565762	
3621.500	0.005256805	
3621.000	0.005928788	
3620.500	0.006572851	
3620.000	0.00703259	
3619.500	0.007324175	
3619.000	0.007569893	
3618.500	0.007775589	
3618.000	0.007835015	
3617.500	0.007761603	
3617.000	0.007589105	
3616.500	0.007350011	
3616.000	0.007263286	
3615.500	0.007428405	
3615.000	0.007587437	
3614.500	0.007681935	
3614.000	0.007915961	
3613.500	0.008223709	
3613.000	0.008489969	
3612.500	0.008843521	
3612.000	0.009325541	
3611.500	0.009819656	
3611.000	0.01034026	
3610.500	0.01087449	
3610.000	0.01129369	
3609.500	0.01163033	
3609.000	0.01200619	
3608.500	0.01234051	
3608.000	0.01250296	
3607.500	0.012567	
3607.000	0.01263705	
3606.500	0.01277734	
3606.000	0.01303808	
3605.500	0.01329989	
3605.000	0.01341868	
3604.500	0.0136117	
3604.000	0.0141139	
3603.500	0.01477563	
3603.000	0.01545309	
3602.500	0.0161536	
3602.000	0.01674547	
3601.500	0.01712124	
3601.000	0.01750654	
3600.500	0.01796808	
3600.000	0.01820627	
3599.500	0.01820698	
3599.000	0.0182911	
3598.500	0.01841139	
3598.000	0.01822271	
3597.500	0.01781509	
3597.000	0.01749083	
3596.500	0.01712765	
3596.000	0.01645152	
3595.500	0.01567579	
3595.000	0.01515972	
3594.500	0.01477088	
3594.000	0.01416843	
3593.500	0.01349017	
3593.000	0.01312638	
3592.500	0.01301122	
3592.000	0.01281606	
3591.500	0.01256706	
3591.000	0.01247727	
3590.500	0.0124205	
3590.000	0.01227377	
3589.500	0.01225947	
3589.000	0.01243425	
3588.500	0.01232152	
3588.000	0.01175785	
3587.500	0.01114721	
3587.000	0.01059388	
3586.500	0.009900707	
3586.000	0.009033353	
3585.500	0.008283264	
3585.000	0.007679896	
3584.500	0.006947348	
3584.000	0.00613036	
3583.500	0.005592731	
3583.000	0.005356587	
3582.500	0.005074648	
3582.000	0.004693589	
3581.500	0.004436509	
3581.000	0.004392742	
3580.500	0.004395481	
3580.000	0.004346727	
3579.500	0.004367776	
3579.000	0.004398762	
3578.500	0.004255603	
3578.000	0.004040633	
3577.500	0.003918599	
3577.000	0.003888611	
3576.500	0.003934246	
3576.000	0.003926552	
3575.500	0.003839494	
3575.000	0.003792251	
3574.500	0.003893353	
3574.000	0.004098956	
3573.500	0.00430267	
3573.000	0.004516334	
3572.500	0.004835166	
3572.000	0.005308791	
3571.500	0.005872979	
3571.000	0.006496081	
3570.500	0.007123713	
3570.000	0.007716976	
3569.500	0.008351667	
3569.000	0.008957798	
3568.500	0.009414031	
3568.000	0.009686096	
3567.500	0.00985485	
3567.000	0.009948288	
3566.500	0.009907323	
3566.000	0.009704402	
3565.500	0.009424513	
3565.000	0.009149731	
3564.500	0.008848288	
3564.000	0.008452499	
3563.500	0.008010858	
3563.000	0.007659717	
3562.500	0.007446553	
3562.000	0.007302052	
3561.500	0.007171762	
3561.000	0.007094046	
3560.500	0.00710772	
3560.000	0.007178936	
3559.500	0.007249857	
3559.000	0.007301074	
3558.500	0.00734611	
3558.000	0.007394127	
3557.500	0.007457027	
3557.000	0.007553251	
3556.500	0.007680358	
3556.000	0.007817815	
3555.500	0.007952756	
3555.000	0.008084696	
3554.500	0.008221834	
3554.000	0.008381358	
3553.500	0.008570641	
3553.000	0.00876118	
3552.500	0.008910101	
3552.000	0.009014445	
3551.500	0.009119055	
3551.000	0.00926055	
3550.500	0.009425594	
3550.000	0.009583911	
3549.500	0.009733884	
3549.000	0.009887459	
3548.500	0.01003205	
3548.000	0.01013962	
3547.500	0.01020506	
3547.000	0.01024352	
3546.500	0.0102657	
3546.000	0.01027837	
3545.500	0.01027931	
3545.000	0.01025502	
3544.500	0.010196	
3544.000	0.0101141	
3543.500	0.0100257	
3543.000	0.009933833	
3542.500	0.009844162	
3542.000	0.009780728	
3541.500	0.009772853	
3541.000	0.009821668	
3540.500	0.009909247	
3540.000	0.01002992	
3539.500	0.01019374	
3539.000	0.01039593	
3538.500	0.01060694	
3538.000	0.01080346	
3537.500	0.01098762	
3537.000	0.01116188	
3536.500	0.01131615	
3536.000	0.0114517	
3535.500	0.01158546	
3535.000	0.01172278	
3534.500	0.0118456	
3534.000	0.01193832	
3533.500	0.01199791	
3533.000	0.01201738	
3532.500	0.01196365	
3532.000	0.01181205	
3531.500	0.01156735	
3531.000	0.01126559	
3530.500	0.0109323	
3530.000	0.01057381	
3529.500	0.01018755	
3529.000	0.009771138	
3528.500	0.009312192	
3528.000	0.008797503	
3527.500	0.008233975	
3527.000	0.00765064	
3526.500	0.007084272	
3526.000	0.006565058	
3525.500	0.006098853	
3525.000	0.005660577	
3524.500	0.005214303	
3524.000	0.00473695	
3523.500	0.00422255	
3523.000	0.00367436	
3522.500	0.003101564	
3522.000	0.002525516	
3521.500	0.00197327	
3521.000	0.001458551	
3520.500	0.0009784454	
3520.000	0.0005254322	
3519.500	0.0001005207	
3519.000	-0.000295887	
